# Filename:      /kagra/Dropbox/Personal/Miyo/LOG/190822/TFs/Coherence.1
# Plot type:     Coherence
# Output Format: XY  Zero time  Save separate  
# Channels:             A                         B                Conversion
# Column 1   K1:VIS-ETMX_IP_TEST_L_EXC    K1:VIS-ETMX_TM_DAMP_L_IN1  Phase (degree)
# Data:
0            0           
0.00390625   0           
0.0078125    0           
0.01171875   0           
0.015625     0           
0.01953125   0           
0.0234375    0           
0.02734375   0           
0.03125      0           
0.03515625   0           
0.0390625    0           
0.04296875   0           
0.046875     0           
0.05078125   0           
0.0546875    0           
0.05859375   0           
0.0625       0           
0.06640625   0           
0.0703125    0           
0.07421875   0           
0.078125     0           
0.08203125   0           
0.0859375    0           
0.08984375   0           
0.09375      0           
0.09765625   0           
0.1015625    0           
0.10546875   0           
0.109375     0           
0.11328125   0           
0.1171875    0           
0.12109375   0           
0.125        0           
0.12890625   0           
0.1328125    0           
0.13671875   0           
0.140625     0           
0.14453125   0           
0.1484375    0           
0.15234375   0           
0.15625      0           
0.16015625   0           
0.1640625    0           
0.16796875   0           
0.171875     0           
0.17578125   0           
0.1796875    0           
0.18359375   0           
0.1875       0           
0.19140625   0           
0.1953125    0           
0.19921875   0           
0.203125     0           
0.20703125   0           
0.2109375    0           
0.21484375   0           
0.21875      0           
0.22265625   0           
0.2265625    0           
0.23046875   0           
0.234375     0           
0.23828125   0           
0.2421875    0           
0.24609375   0           
0.25         0           
0.25390625   0           
0.2578125    0           
0.26171875   0           
0.265625     0           
0.26953125   0           
0.2734375    0           
0.27734375   0           
0.28125      0           
0.28515625   0           
0.2890625    0           
0.29296875   0           
0.296875     0           
0.30078125   0           
0.3046875    0           
0.30859375   0           
0.3125       0           
0.31640625   0           
0.3203125    0           
0.32421875   0           
0.328125     0           
0.33203125   0           
0.3359375    0           
0.33984375   0           
0.34375      0           
0.34765625   0           
0.3515625    0           
0.35546875   0           
0.359375     0           
0.36328125   0           
0.3671875    0           
0.37109375   0           
0.375        0           
0.37890625   0           
0.3828125    0           
0.38671875   0           
0.390625     0           
0.39453125   0           
0.3984375    0           
0.40234375   0           
0.40625      0           
0.41015625   0           
0.4140625    0           
0.41796875   0           
0.421875     0           
0.42578125   0           
0.4296875    0           
0.43359375   0           
0.4375       0           
0.44140625   0           
0.4453125    0           
0.44921875   0           
0.453125     0           
0.45703125   0           
0.4609375    0           
0.46484375   0           
0.46875      0           
0.47265625   0           
0.4765625    0           
0.48046875   0           
0.484375     0           
0.48828125   0           
0.4921875    0           
0.49609375   0           
0.5          0           
0.50390625   0           
0.5078125    0           
0.51171875   0           
0.515625     0           
0.51953125   0           
0.5234375    0           
0.52734375   0           
0.53125      0           
0.53515625   0           
0.5390625    0           
0.54296875   0           
0.546875     0           
0.55078125   0           
0.5546875    0           
0.55859375   0           
0.5625       0           
0.56640625   0           
0.5703125    0           
0.57421875   0           
0.578125     0           
0.58203125   0           
0.5859375    0           
0.58984375   0           
0.59375      0           
0.59765625   0           
0.6015625    0           
0.60546875   0           
0.609375     0           
0.61328125   0           
0.6171875    0           
0.62109375   0           
0.625        0           
0.62890625   0           
0.6328125    0           
0.63671875   0           
0.640625     0           
0.64453125   0           
0.6484375    0           
0.65234375   0           
0.65625      0           
0.66015625   0           
0.6640625    0           
0.66796875   0           
0.671875     0           
0.67578125   0           
0.6796875    0           
0.68359375   0           
0.6875       0           
0.69140625   0           
0.6953125    0           
0.69921875   0           
0.703125     0           
0.70703125   0           
0.7109375    0           
0.71484375   0           
0.71875      0           
0.72265625   0           
0.7265625    0           
0.73046875   0           
0.734375     0           
0.73828125   0           
0.7421875    0           
0.74609375   0           
0.75         0           
0.75390625   0           
0.7578125    0           
0.76171875   0           
0.765625     0           
0.76953125   0           
0.7734375    0           
0.77734375   0           
0.78125      0           
0.78515625   0           
0.7890625    0           
0.79296875   0           
0.796875     0           
0.80078125   0           
0.8046875    0           
0.80859375   0           
0.8125       0           
0.81640625   0           
0.8203125    0           
0.82421875   0           
0.828125     0           
0.83203125   0           
0.8359375    0           
0.83984375   0           
0.84375      0           
0.84765625   0           
0.8515625    0           
0.85546875   0           
0.859375     0           
0.86328125   0           
0.8671875    0           
0.87109375   0           
0.875        0           
0.87890625   0           
0.8828125    0           
0.88671875   0           
0.890625     0           
0.89453125   0           
0.8984375    0           
0.90234375   0           
0.90625      0           
0.91015625   0           
0.9140625    0           
0.91796875   0           
0.921875     0           
0.92578125   0           
0.9296875    0           
0.93359375   0           
0.9375       0           
0.94140625   0           
0.9453125    0           
0.94921875   0           
0.953125     0           
0.95703125   0           
0.9609375    0           
0.96484375   0           
0.96875      0           
0.97265625   0           
0.9765625    0           
0.98046875   0           
0.984375     0           
0.98828125   0           
0.9921875    0           
0.99609375   0           
1            0           
1.0039062    0           
1.0078125    0           
1.0117188    0           
1.015625     0           
1.0195312    0           
1.0234375    0           
1.0273438    0           
1.03125      0           
1.0351562    0           
1.0390625    0           
1.0429688    0           
1.046875     0           
1.0507812    0           
1.0546875    0           
1.0585938    0           
1.0625       0           
1.0664062    0           
1.0703125    0           
1.0742188    0           
1.078125     0           
1.0820312    0           
1.0859375    0           
1.0898438    0           
1.09375      0           
1.0976562    0           
1.1015625    0           
1.1054688    0           
1.109375     0           
1.1132812    0           
1.1171875    0           
1.1210938    0           
1.125        0           
1.1289062    0           
1.1328125    0           
1.1367188    0           
1.140625     0           
1.1445312    0           
1.1484375    0           
1.1523438    0           
1.15625      0           
1.1601562    0           
1.1640625    0           
1.1679688    0           
1.171875     0           
1.1757812    0           
1.1796875    0           
1.1835938    0           
1.1875       0           
1.1914062    0           
1.1953125    0           
1.1992188    0           
1.203125     0           
1.2070312    0           
1.2109375    0           
1.2148438    0           
1.21875      0           
1.2226562    0           
1.2265625    0           
1.2304688    0           
1.234375     0           
1.2382812    0           
1.2421875    0           
1.2460938    0           
1.25         0           
1.2539062    0           
1.2578125    0           
1.2617188    0           
1.265625     0           
1.2695312    0           
1.2734375    0           
1.2773438    0           
1.28125      0           
1.2851562    0           
1.2890625    0           
1.2929688    0           
1.296875     0           
1.3007812    0           
1.3046875    0           
1.3085938    0           
1.3125       0           
1.3164062    0           
1.3203125    0           
1.3242188    0           
1.328125     0           
1.3320312    0           
1.3359375    0           
1.3398438    0           
1.34375      0           
1.3476562    0           
1.3515625    0           
1.3554688    0           
1.359375     0           
1.3632812    0           
1.3671875    0           
1.3710938    0           
1.375        0           
1.3789062    0           
1.3828125    0           
1.3867188    0           
1.390625     0           
1.3945312    0           
1.3984375    0           
1.4023438    0           
1.40625      0           
1.4101562    0           
1.4140625    0           
1.4179688    0           
1.421875     0           
1.4257812    0           
1.4296875    0           
1.4335938    0           
1.4375       0           
1.4414062    0           
1.4453125    0           
1.4492188    0           
1.453125     0           
1.4570312    0           
1.4609375    0           
1.4648438    0           
1.46875      0           
1.4726562    0           
1.4765625    0           
1.4804688    0           
1.484375     0           
1.4882812    0           
1.4921875    0           
1.4960938    0           
1.5          0           
1.5039062    0           
1.5078125    0           
1.5117188    0           
1.515625     0           
1.5195312    0           
1.5234375    0           
1.5273438    0           
1.53125      0           
1.5351562    0           
1.5390625    0           
1.5429688    0           
1.546875     0           
1.5507812    0           
1.5546875    0           
1.5585938    0           
1.5625       0           
1.5664062    0           
1.5703125    0           
1.5742188    0           
1.578125     0           
1.5820312    0           
1.5859375    0           
1.5898438    0           
1.59375      0           
1.5976562    0           
1.6015625    0           
1.6054688    0           
1.609375     0           
1.6132812    0           
1.6171875    0           
1.6210938    0           
1.625        0           
1.6289062    0           
1.6328125    0           
1.6367188    0           
1.640625     0           
1.6445312    0           
1.6484375    0           
1.6523438    0           
1.65625      0           
1.6601562    0           
1.6640625    0           
1.6679688    0           
1.671875     0           
1.6757812    0           
1.6796875    0           
1.6835938    0           
1.6875       0           
1.6914062    0           
1.6953125    0           
1.6992188    0           
1.703125     0           
1.7070312    0           
1.7109375    0           
1.7148438    0           
1.71875      0           
1.7226562    0           
1.7265625    0           
1.7304688    0           
1.734375     0           
1.7382812    0           
1.7421875    0           
1.7460938    0           
1.75         0           
1.7539062    0           
1.7578125    0           
1.7617188    0           
1.765625     0           
1.7695312    0           
1.7734375    0           
1.7773438    0           
1.78125      0           
1.7851562    0           
1.7890625    0           
1.7929688    0           
1.796875     0           
1.8007812    0           
1.8046875    0           
1.8085938    0           
1.8125       0           
1.8164062    0           
1.8203125    0           
1.8242188    0           
1.828125     0           
1.8320312    0           
1.8359375    0           
1.8398438    0           
1.84375      0           
1.8476562    0           
1.8515625    0           
1.8554688    0           
1.859375     0           
1.8632812    0           
1.8671875    0           
1.8710938    0           
1.875        0           
1.8789062    0           
1.8828125    0           
1.8867188    0           
1.890625     0           
1.8945312    0           
1.8984375    0           
1.9023438    0           
1.90625      0           
1.9101562    0           
1.9140625    0           
1.9179688    0           
1.921875     0           
1.9257812    0           
1.9296875    0           
1.9335938    0           
1.9375       0           
1.9414062    0           
1.9453125    0           
1.9492188    0           
1.953125     0           
1.9570312    0           
1.9609375    0           
1.9648438    0           
1.96875      0           
1.9726562    0           
1.9765625    0           
1.9804688    0           
1.984375     0           
1.9882812    0           
1.9921875    0           
1.9960938    0           
2            0           
2.0039062    0           
2.0078125    0           
2.0117188    0           
2.015625     0           
2.0195312    0           
2.0234375    0           
2.0273438    0           
2.03125      0           
2.0351562    0           
2.0390625    0           
2.0429688    0           
2.046875     0           
2.0507812    0           
2.0546875    0           
2.0585938    0           
2.0625       0           
2.0664062    0           
2.0703125    0           
2.0742188    0           
2.078125     0           
2.0820312    0           
2.0859375    0           
2.0898438    0           
2.09375      0           
2.0976562    0           
2.1015625    0           
2.1054688    0           
2.109375     0           
2.1132812    0           
2.1171875    0           
2.1210938    0           
2.125        0           
2.1289062    0           
2.1328125    0           
2.1367188    0           
2.140625     0           
2.1445312    0           
2.1484375    0           
2.1523438    0           
2.15625      0           
2.1601562    0           
2.1640625    0           
2.1679688    0           
2.171875     0           
2.1757812    0           
2.1796875    0           
2.1835938    0           
2.1875       0           
2.1914062    0           
2.1953125    0           
2.1992188    0           
2.203125     0           
2.2070312    0           
2.2109375    0           
2.2148438    0           
2.21875      0           
2.2226562    0           
2.2265625    0           
2.2304688    0           
2.234375     0           
2.2382812    0           
2.2421875    0           
2.2460938    0           
2.25         0           
2.2539062    0           
2.2578125    0           
2.2617188    0           
2.265625     0           
2.2695312    0           
2.2734375    0           
2.2773438    0           
2.28125      0           
2.2851562    0           
2.2890625    0           
2.2929688    0           
2.296875     0           
2.3007812    0           
2.3046875    0           
2.3085938    0           
2.3125       0           
2.3164062    0           
2.3203125    0           
2.3242188    0           
2.328125     0           
2.3320312    0           
2.3359375    0           
2.3398438    0           
2.34375      0           
2.3476562    0           
2.3515625    0           
2.3554688    0           
2.359375     0           
2.3632812    0           
2.3671875    0           
2.3710938    0           
2.375        0           
2.3789062    0           
2.3828125    0           
2.3867188    0           
2.390625     0           
2.3945312    0           
2.3984375    0           
2.4023438    0           
2.40625      0           
2.4101562    0           
2.4140625    0           
2.4179688    0           
2.421875     0           
2.4257812    0           
2.4296875    0           
2.4335938    0           
2.4375       0           
2.4414062    0           
2.4453125    0           
2.4492188    0           
2.453125     0           
2.4570312    0           
2.4609375    0           
2.4648438    0           
2.46875      0           
2.4726562    0           
2.4765625    0           
2.4804688    0           
2.484375     0           
2.4882812    0           
2.4921875    0           
2.4960938    0           
2.5          0           
2.5039062    0           
2.5078125    0           
2.5117188    0           
2.515625     0           
2.5195312    0           
2.5234375    0           
2.5273438    0           
2.53125      0           
2.5351562    0           
2.5390625    0           
2.5429688    0           
2.546875     0           
2.5507812    0           
2.5546875    0           
2.5585938    0           
2.5625       0           
2.5664062    0           
2.5703125    0           
2.5742188    0           
2.578125     0           
2.5820312    0           
2.5859375    0           
2.5898438    0           
2.59375      0           
2.5976562    0           
2.6015625    0           
2.6054688    0           
2.609375     0           
2.6132812    0           
2.6171875    0           
2.6210938    0           
2.625        0           
2.6289062    0           
2.6328125    0           
2.6367188    0           
2.640625     0           
2.6445312    0           
2.6484375    0           
2.6523438    0           
2.65625      0           
2.6601562    0           
2.6640625    0           
2.6679688    0           
2.671875     0           
2.6757812    0           
2.6796875    0           
2.6835938    0           
2.6875       0           
2.6914062    0           
2.6953125    0           
2.6992188    0           
2.703125     0           
2.7070312    0           
2.7109375    0           
2.7148438    0           
2.71875      0           
2.7226562    0           
2.7265625    0           
2.7304688    0           
2.734375     0           
2.7382812    0           
2.7421875    0           
2.7460938    0           
2.75         0           
2.7539062    0           
2.7578125    0           
2.7617188    0           
2.765625     0           
2.7695312    0           
2.7734375    0           
2.7773438    0           
2.78125      0           
2.7851562    0           
2.7890625    0           
2.7929688    0           
2.796875     0           
2.8007812    0           
2.8046875    0           
2.8085938    0           
2.8125       0           
2.8164062    0           
2.8203125    0           
2.8242188    0           
2.828125     0           
2.8320312    0           
2.8359375    0           
2.8398438    0           
2.84375      0           
2.8476562    0           
2.8515625    0           
2.8554688    0           
2.859375     0           
2.8632812    0           
2.8671875    0           
2.8710938    0           
2.875        0           
2.8789062    0           
2.8828125    0           
2.8867188    0           
2.890625     0           
2.8945312    0           
2.8984375    0           
2.9023438    0           
2.90625      0           
2.9101562    0           
2.9140625    0           
2.9179688    0           
2.921875     0           
2.9257812    0           
2.9296875    0           
2.9335938    0           
2.9375       0           
2.9414062    0           
2.9453125    0           
2.9492188    0           
2.953125     0           
